#GR700XD order  1:                1.30000  7.782045e-05  1.941719e+04  2.680489e-15  1.511054e-03
#                              Wavelength    Response
                                  0.92066  1.221173e+00
                                  0.92197  1.215508e+00
                                  0.92329  1.210151e+00
                                  0.92460  1.204188e+00
                                  0.92591  1.197805e+00
                                  0.92723  1.192022e+00
                                  0.92854  1.186418e+00
                                  0.92986  1.180929e+00
                                  0.93117  1.175651e+00
                                  0.93249  1.170036e+00
                                  0.93380  1.164138e+00
                                  0.93511  1.158785e+00
                                  0.93643  1.153811e+00
                                  0.93774  1.148913e+00
                                  0.93906  1.144086e+00
                                  0.94037  1.138917e+00
                                  0.94169  1.133351e+00
                                  0.94300  1.128435e+00
                                  0.94431  1.123605e+00
                                  0.94563  1.118358e+00
                                  0.94694  1.113513e+00
                                  0.94826  1.109123e+00
                                  0.94957  1.104829e+00
                                  0.95089  1.100549e+00
                                  0.95220  1.096338e+00
                                  0.95351  1.092208e+00
                                  0.95483  1.087523e+00
                                  0.95614  1.082685e+00
                                  0.95746  1.078576e+00
                                  0.95877  1.074756e+00
                                  0.96009  1.070847e+00
                                  0.96140  1.066975e+00
                                  0.96271  1.062706e+00
                                  0.96403  1.058214e+00
                                  0.96534  1.054369e+00
                                  0.96666  1.050611e+00
                                  0.96797  1.046978e+00
                                  0.96929  1.043323e+00
                                  0.97060  1.039747e+00
                                  0.97191  1.036256e+00
                                  0.97323  1.032785e+00
                                  0.97454  1.029319e+00
                                  0.97586  1.025821e+00
                                  0.97717  1.021863e+00
                                  0.97849  1.018054e+00
                                  0.97980  1.014810e+00
                                  0.98111  1.011640e+00
                                  0.98243  1.008536e+00
                                  0.98374  1.005523e+00
                                  0.98506  1.002523e+00
                                  0.98637  9.995784e-01
                                  0.98769  9.966414e-01
                                  0.98900  9.932296e-01
                                  0.99031  9.898772e-01
                                  0.99163  9.870828e-01
                                  0.99294  9.844319e-01
                                  0.99426  9.817516e-01
                                  0.99557  9.791404e-01
                                  0.99689  9.765510e-01
                                  0.99820  9.740239e-01
                                  0.99951  9.715074e-01
                                  1.00083  9.684635e-01
                                  1.00214  9.653435e-01
                                  1.00346  9.627501e-01
                                  1.00477  9.603425e-01
                                  1.00609  9.577883e-01
                                  1.00740  9.554296e-01
                                  1.00871  9.530170e-01
                                  1.01003  9.506862e-01
                                  1.01134  9.484622e-01
                                  1.01266  9.457794e-01
                                  1.01397  9.429701e-01
                                  1.01529  9.406076e-01
                                  1.01660  9.384407e-01
                                  1.01791  9.363445e-01
                                  1.01923  9.341869e-01
                                  1.02054  9.321100e-01
                                  1.02186  9.300670e-01
                                  1.02317  9.280174e-01
                                  1.02449  9.260083e-01
                                  1.02580  9.239694e-01
                                  1.02711  9.220118e-01
                                  1.02843  9.201497e-01
                                  1.02974  9.182375e-01
                                  1.03106  9.159099e-01
                                  1.03237  9.137985e-01
                                  1.03369  9.120769e-01
                                  1.03500  9.103725e-01
                                  1.03631  9.086899e-01
                                  1.03763  9.071082e-01
                                  1.03894  9.054825e-01
                                  1.04026  9.038929e-01
                                  1.04157  9.024538e-01
                                  1.04289  9.009665e-01
                                  1.04420  8.995298e-01
                                  1.04551  8.980659e-01
                                  1.04683  8.962861e-01
                                  1.04814  8.944184e-01
                                  1.04946  8.930359e-01
                                  1.05077  8.916314e-01
                                  1.05209  8.901859e-01
                                  1.05340  8.888316e-01
                                  1.05471  8.874997e-01
                                  1.05603  8.860747e-01
                                  1.05734  8.847481e-01
                                  1.05866  8.834932e-01
                                  1.05997  8.822308e-01
                                  1.06129  8.804125e-01
                                  1.06260  8.787909e-01
                                  1.06391  8.776247e-01
                                  1.06523  8.765234e-01
                                  1.06654  8.753851e-01
                                  1.06786  8.741892e-01
                                  1.06917  8.726014e-01
                                  1.07049  8.714494e-01
                                  1.07180  8.708753e-01
                                  1.07311  8.699607e-01
                                  1.07443  8.688462e-01
                                  1.07574  8.677781e-01
                                  1.07706  8.667730e-01
                                  1.07837  8.655772e-01
                                  1.07969  8.640795e-01
                                  1.08100  8.629301e-01
                                  1.08231  8.621012e-01
                                  1.08363  8.611892e-01
                                  1.08494  8.598356e-01
                                  1.08626  8.585007e-01
                                  1.08757  8.576468e-01
                                  1.08889  8.569325e-01
                                  1.09020  8.560597e-01
                                  1.09151  8.548762e-01
                                  1.09283  8.539334e-01
                                  1.09414  8.532637e-01
                                  1.09546  8.526743e-01
                                  1.09677  8.525278e-01
                                  1.09809  8.524196e-01
                                  1.09940  8.514948e-01
                                  1.10071  8.505944e-01
                                  1.10203  8.499434e-01
                                  1.10334  8.489229e-01
                                  1.10466  8.480729e-01
                                  1.10597  8.476481e-01
                                  1.10729  8.472036e-01
                                  1.10860  8.467787e-01
                                  1.10991  8.463783e-01
                                  1.11123  8.460719e-01
                                  1.11254  8.458428e-01
                                  1.11386  8.455136e-01
                                  1.11517  8.448052e-01
                                  1.11649  8.442365e-01
                                  1.11780  8.440016e-01
                                  1.11911  8.439075e-01
                                  1.12043  8.437911e-01
                                  1.12174  8.436249e-01
                                  1.12306  8.431457e-01
                                  1.12437  8.426965e-01
                                  1.12569  8.426403e-01
                                  1.12700  8.426993e-01
                                  1.12831  8.427310e-01
                                  1.12963  8.427779e-01
                                  1.13094  8.429091e-01
                                  1.13226  8.428530e-01
                                  1.13357  8.425341e-01
                                  1.13489  8.423950e-01
                                  1.13620  8.426239e-01
                                  1.13751  8.428881e-01
                                  1.13883  8.431934e-01
                                  1.14014  8.433151e-01
                                  1.14146  8.431923e-01
                                  1.14277  8.433459e-01
                                  1.14409  8.437922e-01
                                  1.14540  8.436289e-01
                                  1.14671  8.438431e-01
                                  1.14803  8.442049e-01
                                  1.14934  8.442721e-01
                                  1.15066  8.448173e-01
                                  1.15197  8.458918e-01
                                  1.15329  8.466819e-01
                                  1.15460  8.469009e-01
                                  1.15591  8.470509e-01
                                  1.15723  8.475563e-01
                                  1.15854  8.482060e-01
                                  1.15986  8.489279e-01
                                  1.16117  8.496538e-01
                                  1.16249  8.500752e-01
                                  1.16380  8.502964e-01
                                  1.16511  8.509547e-01
                                  1.16643  8.514896e-01
                                  1.16774  8.517671e-01
                                  1.16906  8.524293e-01
                                  1.17037  8.530795e-01
                                  1.17169  8.533844e-01
                                  1.17300  8.540631e-01
                                  1.17431  8.550755e-01
                                  1.17563  8.560611e-01
                                  1.17694  8.570072e-01
                                  1.17826  8.580040e-01
                                  1.17957  8.590175e-01
                                  1.18089  8.599735e-01
                                  1.18220  8.610076e-01
                                  1.18351  8.620529e-01
                                  1.18483  8.627689e-01
                                  1.18614  8.631003e-01
                                  1.18746  8.635964e-01
                                  1.18877  8.644279e-01
                                  1.19009  8.655033e-01
                                  1.19140  8.665782e-01
                                  1.19271  8.680275e-01
                                  1.19403  8.694750e-01
                                  1.19534  8.702197e-01
                                  1.19666  8.710108e-01
                                  1.19797  8.721732e-01
                                  1.19929  8.727605e-01
                                  1.20060  8.736362e-01
                                  1.20191  8.747853e-01
                                  1.20323  8.756418e-01
                                  1.20454  8.766096e-01
                                  1.20586  8.777843e-01
                                  1.20717  8.786600e-01
                                  1.20849  8.796465e-01
                                  1.20980  8.810143e-01
                                  1.21111  8.823817e-01
                                  1.21243  8.837481e-01
                                  1.21374  8.851942e-01
                                  1.21506  8.866528e-01
                                  1.21637  8.878812e-01
                                  1.21769  8.887527e-01
                                  1.21900  8.895344e-01
                                  1.22031  8.908609e-01
                                  1.22163  8.927584e-01
                                  1.22294  8.941301e-01
                                  1.22426  8.951456e-01
                                  1.22557  8.965771e-01
                                  1.22689  8.981630e-01
                                  1.22820  8.997567e-01
                                  1.22951  9.013197e-01
                                  1.23083  9.029098e-01
                                  1.23214  9.044374e-01
                                  1.23346  9.054024e-01
                                  1.23477  9.066340e-01
                                  1.23609  9.083075e-01
                                  1.23740  9.099198e-01
                                  1.23871  9.115312e-01
                                  1.24003  9.132644e-01
                                  1.24134  9.149416e-01
                                  1.24266  9.163072e-01
                                  1.24397  9.175420e-01
                                  1.24529  9.191527e-01
                                  1.24660  9.210967e-01
                                  1.24791  9.226081e-01
                                  1.24923  9.233782e-01
                                  1.25054  9.244493e-01
                                  1.25186  9.263273e-01
                                  1.25317  9.282353e-01
                                  1.25449  9.300970e-01
                                  1.25580  9.320258e-01
                                  1.25711  9.338563e-01
                                  1.25843  9.360910e-01
                                  1.25974  9.385454e-01
                                  1.26106  9.403101e-01
                                  1.26237  9.418523e-01
                                  1.26369  9.438896e-01
                                  1.26500  9.456215e-01
                                  1.26631  9.473074e-01
                                  1.26763  9.493927e-01
                                  1.26894  9.515816e-01
                                  1.27026  9.537533e-01
                                  1.27157  9.558106e-01
                                  1.27289  9.575190e-01
                                  1.27420  9.592694e-01
                                  1.27551  9.613008e-01
                                  1.27683  9.630856e-01
                                  1.27814  9.647686e-01
                                  1.27946  9.668909e-01
                                  1.28077  9.695591e-01
                                  1.28209  9.720739e-01
                                  1.28340  9.738068e-01
                                  1.28471  9.756693e-01
                                  1.28603  9.778966e-01
                                  1.28734  9.801836e-01
                                  1.28866  9.820696e-01
                                  1.28997  9.837189e-01
                                  1.29129  9.858502e-01
                                  1.29260  9.881495e-01
                                  1.29391  9.902829e-01
                                  1.29523  9.925894e-01
                                  1.29654  9.949467e-01
                                  1.29786  9.972080e-01
                                  1.29917  9.987844e-01
                                  1.30049  1.000724e+00
                                  1.30180  1.003091e+00
                                  1.30311  1.004848e+00
                                  1.30443  1.006742e+00
                                  1.30574  1.009067e+00
                                  1.30706  1.011422e+00
                                  1.30837  1.013873e+00
                                  1.30969  1.016267e+00
                                  1.31100  1.018795e+00
                                  1.31231  1.021304e+00
                                  1.31363  1.023849e+00
                                  1.31494  1.025855e+00
                                  1.31626  1.027794e+00
                                  1.31757  1.030288e+00
                                  1.31889  1.032857e+00
                                  1.32020  1.035515e+00
                                  1.32151  1.038110e+00
                                  1.32283  1.040731e+00
                                  1.32414  1.043452e+00
                                  1.32546  1.046096e+00
                                  1.32677  1.048752e+00
                                  1.32809  1.051395e+00
                                  1.32940  1.054075e+00
                                  1.33071  1.056819e+00
                                  1.33203  1.059428e+00
                                  1.33334  1.061461e+00
                                  1.33466  1.064272e+00
                                  1.33597  1.067469e+00
                                  1.33729  1.069698e+00
                                  1.33860  1.072069e+00
                                  1.33991  1.074668e+00
                                  1.34123  1.076865e+00
                                  1.34254  1.079229e+00
                                  1.34386  1.081865e+00
                                  1.34517  1.084610e+00
                                  1.34649  1.087383e+00
                                  1.34780  1.090239e+00
                                  1.34911  1.093032e+00
                                  1.35043  1.095824e+00
                                  1.35174  1.098497e+00
                                  1.35306  1.100752e+00
                                  1.35437  1.103085e+00
                                  1.35569  1.105894e+00
                                  1.35700  1.108768e+00
                                  1.35831  1.111278e+00
                                  1.35963  1.113655e+00
                                  1.36094  1.116753e+00
                                  1.36226  1.120320e+00
                                  1.36357  1.123453e+00
                                  1.36489  1.126437e+00
                                  1.36620  1.129573e+00
                                  1.36751  1.132638e+00
                                  1.36883  1.135673e+00
                                  1.37014  1.138691e+00
                                  1.37146  1.141792e+00
                                  1.37277  1.144243e+00
                                  1.37409  1.146623e+00
                                  1.37540  1.149546e+00
                                  1.37671  1.152563e+00
                                  1.37803  1.155607e+00
                                  1.37934  1.158677e+00
                                  1.38066  1.162103e+00
                                  1.38197  1.165671e+00
                                  1.38329  1.168863e+00
                                  1.38460  1.171406e+00
                                  1.38591  1.173771e+00
                                  1.38723  1.176495e+00
                                  1.38854  1.179507e+00
                                  1.38986  1.182577e+00
                                  1.39117  1.185631e+00
                                  1.39249  1.188653e+00
                                  1.39380  1.191658e+00
                                  1.39511  1.194079e+00
                                  1.39643  1.196455e+00
                                  1.39774  1.199554e+00
                                  1.39906  1.202627e+00
                                  1.40037  1.205721e+00
                                  1.40169  1.208989e+00
                                  1.40300  1.212197e+00
                                  1.40431  1.215390e+00
                                  1.40563  1.218583e+00
                                  1.40694  1.221751e+00
                                  1.40826  1.225287e+00
                                  1.40957  1.229244e+00
                                  1.41089  1.232910e+00
                                  1.41220  1.235933e+00
                                  1.41351  1.238459e+00
                                  1.41483  1.241310e+00
                                  1.41614  1.244563e+00
                                  1.41746  1.247874e+00
                                  1.41877  1.251064e+00
                                  1.42009  1.254355e+00
                                  1.42140  1.257587e+00
                                  1.42271  1.260846e+00
                                  1.42403  1.264148e+00
                                  1.42534  1.267400e+00
                                  1.42666  1.270629e+00
                                  1.42797  1.273952e+00
                                  1.42929  1.277242e+00
                                  1.43060  1.280071e+00
                                  1.43191  1.282616e+00
                                  1.43323  1.285587e+00
                                  1.43454  1.289018e+00
                                  1.43586  1.292288e+00
                                  1.43717  1.295522e+00
                                  1.43849  1.298845e+00
                                  1.43980  1.302165e+00
                                  1.44111  1.305483e+00
                                  1.44243  1.309234e+00
                                  1.44374  1.313327e+00
                                  1.44506  1.316539e+00
                                  1.44637  1.319417e+00
                                  1.44769  1.323816e+00
                                  1.44900  1.326744e+00
                                  1.45031  1.329668e+00
                                  1.45163  1.332973e+00
                                  1.45294  1.335733e+00
                                  1.45426  1.338963e+00
                                  1.45557  1.342979e+00
                                  1.45689  1.346901e+00
                                  1.45820  1.350134e+00
                                  1.45951  1.352808e+00
                                  1.46083  1.356399e+00
                                  1.46214  1.360754e+00
                                  1.46346  1.364374e+00
                                  1.46477  1.368596e+00
                                  1.46609  1.372492e+00
                                  1.46740  1.375639e+00
                                  1.46871  1.378727e+00
                                  1.47003  1.382270e+00
                                  1.47134  1.385736e+00
                                  1.47266  1.389224e+00
                                  1.47397  1.392702e+00
                                  1.47529  1.396184e+00
                                  1.47660  1.399629e+00
                                  1.47791  1.403423e+00
                                  1.47923  1.407576e+00
                                  1.48054  1.411197e+00
                                  1.48186  1.414236e+00
                                  1.48317  1.418138e+00
                                  1.48449  1.422099e+00
                                  1.48580  1.424698e+00
                                  1.48711  1.428129e+00
                                  1.48843  1.431753e+00
                                  1.48974  1.435427e+00
                                  1.49106  1.439087e+00
                                  1.49237  1.442764e+00
                                  1.49369  1.446531e+00
                                  1.49500  1.450331e+00
                                  1.49631  1.454046e+00
                                  1.49763  1.457808e+00
                                  1.49894  1.462271e+00
                                  1.50026  1.466548e+00
                                  1.50157  1.470326e+00
                                  1.50289  1.473845e+00
                                  1.50420  1.477406e+00
                                  1.50551  1.480886e+00
                                  1.50683  1.484375e+00
                                  1.50814  1.487998e+00
                                  1.50946  1.491539e+00
                                  1.51077  1.495186e+00
                                  1.51209  1.498509e+00
                                  1.51340  1.501513e+00
                                  1.51471  1.505033e+00
                                  1.51603  1.509786e+00
                                  1.51734  1.513431e+00
                                  1.51866  1.516923e+00
                                  1.51997  1.520995e+00
                                  1.52129  1.525531e+00
                                  1.52260  1.529465e+00
                                  1.52391  1.532289e+00
                                  1.52523  1.535646e+00
                                  1.52654  1.539529e+00
                                  1.52786  1.543492e+00
                                  1.52917  1.548064e+00
                                  1.53049  1.552391e+00
                                  1.53180  1.555983e+00
                                  1.53311  1.558964e+00
                                  1.53443  1.561875e+00
                                  1.53574  1.565620e+00
                                  1.53706  1.569363e+00
                                  1.53837  1.573631e+00
                                  1.53969  1.577821e+00
                                  1.54100  1.581310e+00
                                  1.54231  1.584174e+00
                                  1.54363  1.587712e+00
                                  1.54494  1.592309e+00
                                  1.54626  1.596668e+00
                                  1.54757  1.600556e+00
                                  1.54889  1.604246e+00
                                  1.55020  1.607589e+00
                                  1.55151  1.610273e+00
                                  1.55283  1.614106e+00
                                  1.55414  1.618539e+00
                                  1.55546  1.622394e+00
                                  1.55677  1.626621e+00
                                  1.55809  1.631103e+00
                                  1.55940  1.635048e+00
                                  1.56071  1.637921e+00
                                  1.56203  1.640891e+00
                                  1.56334  1.645376e+00
                                  1.56466  1.649774e+00
                                  1.56597  1.653338e+00
                                  1.56729  1.656263e+00
                                  1.56860  1.659676e+00
                                  1.56991  1.664563e+00
                                  1.57123  1.668446e+00
                                  1.57254  1.672312e+00
                                  1.57386  1.676222e+00
                                  1.57517  1.680112e+00
                                  1.57649  1.684074e+00
                                  1.57780  1.687802e+00
                                  1.57911  1.690826e+00
                                  1.58043  1.693898e+00
                                  1.58174  1.697718e+00
                                  1.58306  1.702375e+00
                                  1.58437  1.706989e+00
                                  1.58569  1.710765e+00
                                  1.58700  1.714526e+00
                                  1.58831  1.718249e+00
                                  1.58963  1.722240e+00
                                  1.59094  1.726686e+00
                                  1.59226  1.731256e+00
                                  1.59357  1.735097e+00
                                  1.59489  1.738788e+00
                                  1.59620  1.742439e+00
                                  1.59751  1.746102e+00
                                  1.59883  1.749802e+00
                                  1.60014  1.753590e+00
                                  1.60146  1.757345e+00
                                  1.60277  1.760255e+00
                                  1.60409  1.763522e+00
                                  1.60540  1.767866e+00
                                  1.60671  1.772483e+00
                                  1.60803  1.776043e+00
                                  1.60934  1.779709e+00
                                  1.61066  1.784091e+00
                                  1.61197  1.788812e+00
                                  1.61329  1.792871e+00
                                  1.61460  1.796543e+00
                                  1.61591  1.799972e+00
                                  1.61723  1.802843e+00
                                  1.61854  1.806239e+00
                                  1.61986  1.810832e+00
                                  1.62117  1.814910e+00
                                  1.62249  1.818622e+00
                                  1.62380  1.822158e+00
                                  1.62511  1.825717e+00
                                  1.62643  1.829381e+00
                                  1.62774  1.833025e+00
                                  1.62906  1.836704e+00
                                  1.63037  1.840287e+00
                                  1.63169  1.843940e+00
                                  1.63300  1.847699e+00
                                  1.63431  1.851425e+00
                                  1.63563  1.855205e+00
                                  1.63694  1.858847e+00
                                  1.63826  1.862445e+00
                                  1.63957  1.866051e+00
                                  1.64089  1.869634e+00
                                  1.64220  1.874067e+00
                                  1.64351  1.878887e+00
                                  1.64483  1.883215e+00
                                  1.64614  1.886957e+00
                                  1.64746  1.890643e+00
                                  1.64877  1.893443e+00
                                  1.65009  1.896885e+00
                                  1.65140  1.901141e+00
                                  1.65271  1.905809e+00
                                  1.65403  1.909594e+00
                                  1.65534  1.913243e+00
                                  1.65666  1.916957e+00
                                  1.65797  1.920673e+00
                                  1.65929  1.924459e+00
                                  1.66060  1.928821e+00
                                  1.66191  1.933248e+00
                                  1.66323  1.936355e+00
                                  1.66454  1.939628e+00
                                  1.66586  1.944397e+00
                                  1.66717  1.947088e+00
                                  1.66849  1.950779e+00
                                  1.66980  1.954554e+00
                                  1.67111  1.957984e+00
                                  1.67243  1.960805e+00
                                  1.67374  1.965861e+00
                                  1.67506  1.970767e+00
                                  1.67637  1.974608e+00
                                  1.67769  1.977220e+00
                                  1.67900  1.980162e+00
                                  1.68031  1.983752e+00
                                  1.68163  1.987448e+00
                                  1.68294  1.991149e+00
                                  1.68426  1.994857e+00
                                  1.68557  1.998515e+00
                                  1.68689  2.002179e+00
                                  1.68820  2.005847e+00
                                  1.68951  2.009544e+00
                                  1.69083  2.013351e+00
                                  1.69214  2.017277e+00
                                  1.69346  2.021224e+00
                                  1.69477  2.025181e+00
                                  1.69609  2.029147e+00
                                  1.69740  2.033103e+00
                                  1.69871  2.037018e+00
                                  1.70003  2.040767e+00
                                  1.70134  2.044482e+00
                                  1.70266  2.049186e+00
                                  1.70397  2.054071e+00
                                  1.70529  2.058424e+00
                                  1.70660  2.062265e+00
                                  1.70791  2.066012e+00
                                  1.70923  2.069954e+00
                                  1.71054  2.073788e+00
                                  1.71186  2.077936e+00
                                  1.71317  2.082812e+00
                                  1.71449  2.086486e+00
                                  1.71580  2.089401e+00
                                  1.71711  2.092681e+00
                                  1.71843  2.096986e+00
                                  1.71974  2.102060e+00
                                  1.72106  2.106100e+00
                                  1.72237  2.109779e+00
                                  1.72369  2.113353e+00
                                  1.72500  2.116900e+00
                                  1.72631  2.120623e+00
                                  1.72763  2.124311e+00
                                  1.72894  2.127974e+00
                                  1.73026  2.131751e+00
                                  1.73157  2.135791e+00
                                  1.73289  2.139768e+00
                                  1.73420  2.143695e+00
                                  1.73551  2.147670e+00
                                  1.73683  2.151598e+00
                                  1.73814  2.155663e+00
                                  1.73946  2.159715e+00
                                  1.74077  2.163613e+00
                                  1.74209  2.167679e+00
                                  1.74340  2.171512e+00
                                  1.74471  2.175331e+00
                                  1.74603  2.179406e+00
                                  1.74734  2.183309e+00
                                  1.74866  2.187267e+00
                                  1.74997  2.191243e+00
                                  1.75129  2.195185e+00
                                  1.75260  2.198938e+00
                                  1.75391  2.202913e+00
                                  1.75523  2.206932e+00
                                  1.75654  2.210760e+00
                                  1.75786  2.215111e+00
                                  1.75917  2.220083e+00
                                  1.76049  2.225090e+00
                                  1.76180  2.229258e+00
                                  1.76311  2.233447e+00
                                  1.76443  2.237611e+00
                                  1.76574  2.241769e+00
                                  1.76706  2.245958e+00
                                  1.76837  2.250369e+00
                                  1.76969  2.254611e+00
                                  1.77100  2.258711e+00
                                  1.77231  2.262850e+00
                                  1.77363  2.267197e+00
                                  1.77494  2.271524e+00
                                  1.77626  2.275774e+00
                                  1.77757  2.279895e+00
                                  1.77889  2.285382e+00
                                  1.78020  2.290139e+00
                                  1.78151  2.293528e+00
                                  1.78283  2.297032e+00
                                  1.78414  2.301204e+00
                                  1.78546  2.305554e+00
                                  1.78677  2.309768e+00
                                  1.78809  2.314074e+00
                                  1.78940  2.318420e+00
                                  1.79071  2.322763e+00
                                  1.79203  2.327038e+00
                                  1.79334  2.331483e+00
                                  1.79466  2.335858e+00
                                  1.79597  2.340195e+00
                                  1.79729  2.344692e+00
                                  1.79860  2.349181e+00
                                  1.79991  2.353480e+00
                                  1.80123  2.357612e+00
                                  1.80254  2.362954e+00
                                  1.80386  2.367529e+00
                                  1.80517  2.371555e+00
                                  1.80649  2.375147e+00
                                  1.80780  2.380154e+00
                                  1.80911  2.383996e+00
                                  1.81043  2.387370e+00
                                  1.81174  2.393306e+00
                                  1.81306  2.397882e+00
                                  1.81437  2.402160e+00
                                  1.81569  2.406522e+00
                                  1.81700  2.410705e+00
                                  1.81831  2.414997e+00
                                  1.81963  2.419288e+00
                                  1.82094  2.423469e+00
                                  1.82226  2.427971e+00
                                  1.82357  2.432432e+00
                                  1.82489  2.436829e+00
                                  1.82620  2.441324e+00
                                  1.82751  2.445840e+00
                                  1.82883  2.450363e+00
                                  1.83014  2.454883e+00
                                  1.83146  2.458893e+00
                                  1.83277  2.462931e+00
                                  1.83409  2.467063e+00
                                  1.83540  2.471361e+00
                                  1.83671  2.475606e+00
                                  1.83803  2.479831e+00
                                  1.83934  2.484053e+00
                                  1.84066  2.489245e+00
                                  1.84197  2.494426e+00
                                  1.84329  2.499407e+00
                                  1.84460  2.503497e+00
                                  1.84591  2.507768e+00
                                  1.84723  2.511912e+00
                                  1.84854  2.515577e+00
                                  1.84986  2.518693e+00
                                  1.85117  2.522524e+00
                                  1.85249  2.527210e+00
                                  1.85380  2.531911e+00
                                  1.85511  2.536684e+00
                                  1.85643  2.541880e+00
                                  1.85774  2.548288e+00
                                  1.85906  2.553402e+00
                                  1.86037  2.557694e+00
                                  1.86169  2.561181e+00
                                  1.86300  2.565957e+00
                                  1.86431  2.570914e+00
                                  1.86563  2.576018e+00
                                  1.86694  2.581199e+00
                                  1.86826  2.586457e+00
                                  1.86957  2.591991e+00
                                  1.87089  2.598106e+00
                                  1.87220  2.604463e+00
                                  1.87351  2.610335e+00
                                  1.87483  2.615495e+00
                                  1.87614  2.620853e+00
                                  1.87746  2.626165e+00
                                  1.87877  2.631401e+00
                                  1.88009  2.636803e+00
                                  1.88140  2.641889e+00
                                  1.88271  2.646895e+00
                                  1.88403  2.651981e+00
                                  1.88534  2.657160e+00
                                  1.88666  2.662294e+00
                                  1.88797  2.667346e+00
                                  1.88929  2.672198e+00
                                  1.89060  2.677014e+00
                                  1.89191  2.681816e+00
                                  1.89323  2.686728e+00
                                  1.89454  2.690329e+00
                                  1.89586  2.693865e+00
                                  1.89717  2.699779e+00
                                  1.89849  2.704209e+00
                                  1.89980  2.708145e+00
                                  1.90111  2.712005e+00
                                  1.90243  2.716553e+00
                                  1.90374  2.721633e+00
                                  1.90506  2.727315e+00
                                  1.90637  2.733022e+00
                                  1.90769  2.738168e+00
                                  1.90900  2.742785e+00
                                  1.91031  2.747567e+00
                                  1.91163  2.751969e+00
                                  1.91294  2.756031e+00
                                  1.91426  2.759574e+00
                                  1.91557  2.764570e+00
                                  1.91689  2.770431e+00
                                  1.91820  2.776946e+00
                                  1.91951  2.782272e+00
                                  1.92083  2.787150e+00
                                  1.92214  2.791842e+00
                                  1.92346  2.795607e+00
                                  1.92477  2.799724e+00
                                  1.92609  2.804765e+00
                                  1.92740  2.810098e+00
                                  1.92871  2.816096e+00
                                  1.93003  2.822938e+00
                                  1.93134  2.827851e+00
                                  1.93266  2.832680e+00
                                  1.93397  2.837502e+00
                                  1.93529  2.842135e+00
                                  1.93660  2.846871e+00
                                  1.93791  2.851698e+00
                                  1.93923  2.856489e+00
                                  1.94054  2.861311e+00
                                  1.94186  2.866195e+00
                                  1.94317  2.871238e+00
                                  1.94449  2.876170e+00
                                  1.94580  2.881047e+00
                                  1.94711  2.886075e+00
                                  1.94843  2.891054e+00
                                  1.94974  2.895720e+00
                                  1.95106  2.899112e+00
                                  1.95237  2.904335e+00
                                  1.95369  2.910301e+00
                                  1.95500  2.915945e+00
                                  1.95631  2.921120e+00
                                  1.95763  2.926078e+00
                                  1.95894  2.930943e+00
                                  1.96026  2.935855e+00
                                  1.96157  2.940754e+00
                                  1.96289  2.945535e+00
                                  1.96420  2.950373e+00
                                  1.96551  2.955257e+00
                                  1.96683  2.960209e+00
                                  1.96814  2.963922e+00
                                  1.96946  2.967348e+00
                                  1.97077  2.971304e+00
                                  1.97209  2.976020e+00
                                  1.97340  2.981018e+00
                                  1.97471  2.986014e+00
                                  1.97603  2.990779e+00
                                  1.97734  2.995490e+00
                                  1.97866  3.000310e+00
                                  1.97997  3.004873e+00
                                  1.98129  3.009351e+00
                                  1.98260  3.013904e+00
                                  1.98391  3.018229e+00
                                  1.98523  3.022478e+00
                                  1.98654  3.026856e+00
                                  1.98786  3.031141e+00
                                  1.98917  3.035307e+00
                                  1.99049  3.039049e+00
                                  1.99180  3.042765e+00
                                  1.99311  3.046422e+00
                                  1.99443  3.049742e+00
                                  1.99574  3.053398e+00
                                  1.99706  3.057015e+00
                                  1.99837  3.056936e+00
                                  1.99969  3.055988e+00
                                  2.00100  3.054407e+00
                                  2.00231  3.057170e+00
                                  2.00363  3.060612e+00
                                  2.00494  3.064754e+00
                                  2.00626  3.067628e+00
                                  2.00757  3.070280e+00
                                  2.00889  3.072703e+00
                                  2.01020  3.075324e+00
                                  2.01151  3.077823e+00
                                  2.01283  3.080085e+00
                                  2.01414  3.082492e+00
                                  2.01546  3.084814e+00
                                  2.01677  3.086884e+00
                                  2.01809  3.089083e+00
                                  2.01940  3.091241e+00
                                  2.02071  3.093142e+00
                                  2.02203  3.095112e+00
                                  2.02334  3.097069e+00
                                  2.02466  3.098785e+00
                                  2.02597  3.100476e+00
                                  2.02729  3.102151e+00
                                  2.02860  3.103903e+00
                                  2.02991  3.105493e+00
                                  2.03123  3.106929e+00
                                  2.03254  3.108528e+00
                                  2.03386  3.110012e+00
                                  2.03517  3.111328e+00
                                  2.03649  3.112688e+00
                                  2.03780  3.114062e+00
                                  2.03911  3.115464e+00
                                  2.04043  3.116757e+00
                                  2.04174  3.118029e+00
                                  2.04306  3.119373e+00
                                  2.04437  3.120419e+00
                                  2.04569  3.121231e+00
                                  2.04700  3.121353e+00
                                  2.04831  3.121730e+00
                                  2.04963  3.122337e+00
                                  2.05094  3.123981e+00
                                  2.05226  3.125858e+00
                                  2.05357  3.128034e+00
                                  2.05489  3.129732e+00
                                  2.05620  3.130972e+00
                                  2.05751  3.131236e+00
                                  2.05883  3.131484e+00
                                  2.06014  3.131891e+00
                                  2.06146  3.133434e+00
                                  2.06277  3.135035e+00
                                  2.06409  3.136681e+00
                                  2.06540  3.138321e+00
                                  2.06671  3.139975e+00
                                  2.06803  3.141653e+00
                                  2.06934  3.143480e+00
                                  2.07066  3.145250e+00
                                  2.07197  3.146791e+00
                                  2.07329  3.148378e+00
                                  2.07460  3.150003e+00
                                  2.07591  3.151816e+00
                                  2.07723  3.153656e+00
                                  2.07854  3.155521e+00
                                  2.07986  3.157270e+00
                                  2.08117  3.158956e+00
                                  2.08249  3.160547e+00
                                  2.08380  3.162230e+00
                                  2.08511  3.164021e+00
                                  2.08643  3.166211e+00
                                  2.08774  3.168219e+00
                                  2.08906  3.170094e+00
                                  2.09037  3.171494e+00
                                  2.09169  3.172731e+00
                                  2.09300  3.173736e+00
                                  2.09431  3.175044e+00
                                  2.09563  3.176623e+00
                                  2.09694  3.178986e+00
                                  2.09826  3.181420e+00
                                  2.09957  3.183898e+00
                                  2.10089  3.186352e+00
                                  2.10220  3.188846e+00
                                  2.10351  3.191403e+00
                                  2.10483  3.194045e+00
                                  2.10614  3.196739e+00
                                  2.10746  3.199572e+00
                                  2.10877  3.202460e+00
                                  2.11009  3.205385e+00
                                  2.11140  3.208396e+00
                                  2.11271  3.211537e+00
                                  2.11403  3.214901e+00
                                  2.11534  3.218167e+00
                                  2.11666  3.221416e+00
                                  2.11797  3.224758e+00
                                  2.11929  3.228218e+00
                                  2.12060  3.231781e+00
                                  2.12191  3.235652e+00
                                  2.12323  3.239504e+00
                                  2.12454  3.243245e+00
                                  2.12586  3.246596e+00
                                  2.12717  3.249762e+00
                                  2.12849  3.252915e+00
                                  2.12980  3.256245e+00
                                  2.13111  3.259806e+00
                                  2.13243  3.263753e+00
                                  2.13374  3.267812e+00
                                  2.13506  3.271973e+00
                                  2.13637  3.276117e+00
                                  2.13769  3.280249e+00
                                  2.13900  3.284483e+00
                                  2.14031  3.288814e+00
                                  2.14163  3.293346e+00
                                  2.14294  3.297935e+00
                                  2.14426  3.302559e+00
                                  2.14557  3.307257e+00
                                  2.14689  3.311923e+00
                                  2.14820  3.316534e+00
                                  2.14951  3.321340e+00
                                  2.15083  3.326276e+00
                                  2.15214  3.331655e+00
                                  2.15346  3.337086e+00
                                  2.15477  3.342574e+00
                                  2.15609  3.348074e+00
                                  2.15740  3.353600e+00
                                  2.15871  3.359168e+00
                                  2.16003  3.364747e+00
                                  2.16134  3.370358e+00
                                  2.16266  3.375850e+00
                                  2.16397  3.381206e+00
                                  2.16529  3.386021e+00
                                  2.16660  3.390700e+00
                                  2.16791  3.395265e+00
                                  2.16923  3.400002e+00
                                  2.17054  3.404977e+00
                                  2.17186  3.410518e+00
                                  2.17317  3.416158e+00
                                  2.17449  3.421853e+00
                                  2.17580  3.427513e+00
                                  2.17711  3.433207e+00
                                  2.17843  3.438975e+00
                                  2.17974  3.444806e+00
                                  2.18106  3.450673e+00
                                  2.18237  3.456436e+00
                                  2.18369  3.462290e+00
                                  2.18500  3.468309e+00
                                  2.18631  3.474336e+00
                                  2.18763  3.480372e+00
                                  2.18894  3.486208e+00
                                  2.19026  3.492043e+00
                                  2.19157  3.497860e+00
                                  2.19289  3.503700e+00
                                  2.19420  3.509560e+00
                                  2.19551  3.515240e+00
                                  2.19683  3.520970e+00
                                  2.19814  3.526786e+00
                                  2.19946  3.532203e+00
                                  2.20077  3.537410e+00
                                  2.20209  3.542315e+00
                                  2.20340  3.547255e+00
                                  2.20471  3.552288e+00
                                  2.20603  3.557556e+00
                                  2.20734  3.562978e+00
                                  2.20866  3.568695e+00
                                  2.20997  3.574441e+00
                                  2.21129  3.580183e+00
                                  2.21260  3.586082e+00
                                  2.21391  3.592107e+00
                                  2.21523  3.597846e+00
                                  2.21654  3.603593e+00
                                  2.21786  3.609498e+00
                                  2.21917  3.615244e+00
                                  2.22049  3.620827e+00
                                  2.22180  3.626191e+00
                                  2.22311  3.631486e+00
                                  2.22443  3.636613e+00
                                  2.22574  3.641867e+00
                                  2.22706  3.647297e+00
                                  2.22837  3.652548e+00
                                  2.22969  3.657744e+00
                                  2.23100  3.663393e+00
                                  2.23231  3.668939e+00
                                  2.23363  3.674248e+00
                                  2.23494  3.679295e+00
                                  2.23626  3.684180e+00
                                  2.23757  3.688730e+00
                                  2.23889  3.693387e+00
                                  2.24020  3.698569e+00
                                  2.24151  3.704301e+00
                                  2.24283  3.710594e+00
                                  2.24414  3.716914e+00
                                  2.24546  3.723255e+00
                                  2.24677  3.729607e+00
                                  2.24809  3.736006e+00
                                  2.24940  3.742472e+00
                                  2.25071  3.748591e+00
                                  2.25203  3.754531e+00
                                  2.25334  3.760654e+00
                                  2.25466  3.766767e+00
                                  2.25597  3.772755e+00
                                  2.25729  3.778684e+00
                                  2.25860  3.784551e+00
                                  2.25991  3.790483e+00
                                  2.26123  3.796450e+00
                                  2.26254  3.802527e+00
                                  2.26386  3.808296e+00
                                  2.26517  3.813415e+00
                                  2.26649  3.818029e+00
                                  2.26780  3.822308e+00
                                  2.26911  3.826821e+00
                                  2.27043  3.831445e+00
                                  2.27174  3.836525e+00
                                  2.27306  3.841693e+00
                                  2.27437  3.846985e+00
                                  2.27569  3.852257e+00
                                  2.27700  3.857523e+00
                                  2.27831  3.862558e+00
                                  2.27963  3.867532e+00
                                  2.28094  3.872313e+00
                                  2.28226  3.877048e+00
                                  2.28357  3.881728e+00
                                  2.28489  3.886529e+00
                                  2.28620  3.891379e+00
                                  2.28751  3.896093e+00
                                  2.28883  3.900821e+00
                                  2.29014  3.905592e+00
                                  2.29146  3.910612e+00
                                  2.29277  3.915888e+00
                                  2.29409  3.921031e+00
                                  2.29540  3.926133e+00
                                  2.29671  3.931231e+00
                                  2.29803  3.936355e+00
                                  2.29934  3.941544e+00
                                  2.30066  3.947208e+00
                                  2.30197  3.953357e+00
                                  2.30329  3.959245e+00
                                  2.30460  3.965049e+00
                                  2.30591  3.970060e+00
                                  2.30723  3.975041e+00
                                  2.30854  3.979943e+00
                                  2.30986  3.985172e+00
                                  2.31117  3.990773e+00
                                  2.31249  3.996760e+00
                                  2.31380  4.002917e+00
                                  2.31511  4.009072e+00
                                  2.31643  4.015251e+00
                                  2.31774  4.021492e+00
                                  2.31906  4.027825e+00
                                  2.32037  4.034281e+00
                                  2.32169  4.040860e+00
                                  2.32300  4.047515e+00
                                  2.32431  4.054270e+00
                                  2.32563  4.061061e+00
                                  2.32694  4.067917e+00
                                  2.32826  4.074723e+00
                                  2.32957  4.081404e+00
                                  2.33089  4.088003e+00
                                  2.33220  4.094538e+00
                                  2.33351  4.100885e+00
                                  2.33483  4.107187e+00
                                  2.33614  4.112436e+00
                                  2.33746  4.117688e+00
                                  2.33877  4.122947e+00
                                  2.34009  4.128547e+00
                                  2.34140  4.134594e+00
                                  2.34271  4.140869e+00
                                  2.34403  4.147274e+00
                                  2.34534  4.153720e+00
                                  2.34666  4.160180e+00
                                  2.34797  4.166586e+00
                                  2.34929  4.172956e+00
                                  2.35060  4.179208e+00
                                  2.35191  4.185469e+00
                                  2.35323  4.191737e+00
                                  2.35454  4.198079e+00
                                  2.35586  4.204460e+00
                                  2.35717  4.210650e+00
                                  2.35849  4.216858e+00
                                  2.35980  4.223316e+00
                                  2.36111  4.229734e+00
                                  2.36243  4.236041e+00
                                  2.36374  4.242494e+00
                                  2.36506  4.249089e+00
                                  2.36637  4.255475e+00
                                  2.36769  4.261781e+00
                                  2.36900  4.268290e+00
                                  2.37031  4.274848e+00
                                  2.37163  4.281538e+00
                                  2.37294  4.288131e+00
                                  2.37426  4.294451e+00
                                  2.37557  4.300447e+00
                                  2.37689  4.306081e+00
                                  2.37820  4.311520e+00
                                  2.37951  4.316864e+00
                                  2.38083  4.322907e+00
                                  2.38214  4.329098e+00
                                  2.38346  4.335690e+00
                                  2.38477  4.342267e+00
                                  2.38609  4.348750e+00
                                  2.38740  4.355277e+00
                                  2.38871  4.361863e+00
                                  2.39003  4.368128e+00
                                  2.39134  4.374159e+00
                                  2.39266  4.380291e+00
                                  2.39397  4.386463e+00
                                  2.39529  4.392565e+00
                                  2.39660  4.398668e+00
                                  2.39791  4.404750e+00
                                  2.39923  4.410951e+00
                                  2.40054  4.417444e+00
                                  2.40186  4.424009e+00
                                  2.40317  4.430660e+00
                                  2.40449  4.437380e+00
                                  2.40580  4.444148e+00
                                  2.40711  4.451017e+00
                                  2.40843  4.457927e+00
                                  2.40974  4.464797e+00
                                  2.41106  4.471639e+00
                                  2.41237  4.478165e+00
                                  2.41369  4.484587e+00
                                  2.41500  4.490709e+00
                                  2.41631  4.496517e+00
                                  2.41763  4.501902e+00
                                  2.41894  4.507419e+00
                                  2.42026  4.513031e+00
                                  2.42157  4.518963e+00
                                  2.42289  4.525011e+00
                                  2.42420  4.531142e+00
                                  2.42551  4.537283e+00
                                  2.42683  4.543275e+00
                                  2.42814  4.549288e+00
                                  2.42946  4.555357e+00
                                  2.43077  4.561231e+00
                                  2.43209  4.566722e+00
                                  2.43340  4.572227e+00
                                  2.43471  4.577743e+00
                                  2.43603  4.583275e+00
                                  2.43734  4.588817e+00
                                  2.43866  4.594317e+00
                                  2.43997  4.599810e+00
                                  2.44129  4.605220e+00
                                  2.44260  4.610624e+00
                                  2.44391  4.615985e+00
                                  2.44523  4.621378e+00
                                  2.44654  4.626883e+00
                                  2.44786  4.632415e+00
                                  2.44917  4.637994e+00
                                  2.45049  4.643572e+00
                                  2.45180  4.649149e+00
                                  2.45311  4.654703e+00
                                  2.45443  4.660242e+00
                                  2.45574  4.665846e+00
                                  2.45706  4.671477e+00
                                  2.45837  4.677057e+00
                                  2.45969  4.682633e+00
                                  2.46100  4.689251e+00
                                  2.46231  4.695892e+00
                                  2.46363  4.702422e+00
                                  2.46494  4.708950e+00
                                  2.46626  4.715437e+00
                                  2.46757  4.722056e+00
                                  2.46889  4.728913e+00
                                  2.47020  4.735388e+00
                                  2.47151  4.741409e+00
                                  2.47283  4.747525e+00
                                  2.47414  4.753714e+00
                                  2.47546  4.759967e+00
                                  2.47677  4.766255e+00
                                  2.47809  4.772398e+00
                                  2.47940  4.778513e+00
                                  2.48071  4.783978e+00
                                  2.48203  4.789381e+00
                                  2.48334  4.794523e+00
                                  2.48466  4.799795e+00
                                  2.48597  4.805910e+00
                                  2.48729  4.812205e+00
                                  2.48860  4.819060e+00
                                  2.48991  4.825978e+00
                                  2.49123  4.833004e+00
                                  2.49254  4.840187e+00
                                  2.49386  4.847564e+00
                                  2.49517  4.854975e+00
                                  2.49649  4.862411e+00
                                  2.49780  4.869772e+00
                                  2.49911  4.877090e+00
                                  2.50043  4.884641e+00
                                  2.50174  4.892283e+00
                                  2.50306  4.900056e+00
                                  2.50437  4.907869e+00
                                  2.50569  4.915726e+00
                                  2.50700  4.923603e+00
                                  2.50831  4.931487e+00
                                  2.50963  4.939376e+00
                                  2.51094  4.947131e+00
                                  2.51226  4.954896e+00
                                  2.51357  4.962628e+00
                                  2.51489  4.970387e+00
                                  2.51620  4.978179e+00
                                  2.51751  4.985958e+00
                                  2.51883  4.993691e+00
                                  2.52014  5.001490e+00
                                  2.52146  5.009375e+00
                                  2.52277  5.017222e+00
                                  2.52409  5.025032e+00
                                  2.52540  5.032875e+00
                                  2.52671  5.040740e+00
                                  2.52803  5.048643e+00
                                  2.52934  5.056560e+00
                                  2.53066  5.064273e+00
                                  2.53197  5.071910e+00
                                  2.53329  5.079196e+00
                                  2.53460  5.086400e+00
                                  2.53591  5.092755e+00
                                  2.53723  5.098984e+00
                                  2.53854  5.105185e+00
                                  2.53986  5.111391e+00
                                  2.54117  5.119018e+00
                                  2.54249  5.126688e+00
                                  2.54380  5.134739e+00
                                  2.54511  5.142800e+00
                                  2.54643  5.150794e+00
                                  2.54774  5.158825e+00
                                  2.54906  5.166953e+00
                                  2.55037  5.175093e+00
                                  2.55169  5.183219e+00
                                  2.55300  5.191374e+00
                                  2.55431  5.199560e+00
                                  2.55563  5.207709e+00
                                  2.55694  5.215764e+00
                                  2.55826  5.223944e+00
                                  2.55957  5.232306e+00
                                  2.56089  5.240544e+00
                                  2.56220  5.248609e+00
                                  2.56351  5.256824e+00
                                  2.56483  5.265168e+00
                                  2.56614  5.273488e+00
                                  2.56746  5.281763e+00
                                  2.56877  5.289809e+00
                                  2.57009  5.297688e+00
                                  2.57140  5.304766e+00
                                  2.57271  5.311363e+00
                                  2.57403  5.318427e+00
                                  2.57534  5.325738e+00
                                  2.57666  5.333803e+00
                                  2.57797  5.342207e+00
                                  2.57929  5.350658e+00
                                  2.58060  5.359142e+00
                                  2.58191  5.367485e+00
                                  2.58323  5.375800e+00
                                  2.58454  5.384055e+00
                                  2.58586  5.392309e+00
                                  2.58717  5.400568e+00
                                  2.58849  5.408845e+00
                                  2.58980  5.417073e+00
                                  2.59111  5.425311e+00
                                  2.59243  5.433519e+00
                                  2.59374  5.441744e+00
                                  2.59506  5.450008e+00
                                  2.59637  5.458298e+00
                                  2.59769  5.466591e+00
                                  2.59900  5.474910e+00
                                  2.60031  5.483274e+00
                                  2.60163  5.491672e+00
                                  2.60294  5.500068e+00
                                  2.60426  5.508503e+00
                                  2.60557  5.517233e+00
                                  2.60689  5.526032e+00
                                  2.60820  5.534412e+00
                                  2.60951  5.542867e+00
                                  2.61083  5.551279e+00
                                  2.61214  5.559765e+00
                                  2.61346  5.568527e+00
                                  2.61477  5.577292e+00
                                  2.61609  5.585684e+00
                                  2.61740  5.594065e+00
                                  2.61871  5.602458e+00
                                  2.62003  5.610887e+00
                                  2.62134  5.619424e+00
                                  2.62266  5.628057e+00
                                  2.62397  5.636222e+00
                                  2.62529  5.644499e+00
                                  2.62660  5.652850e+00
                                  2.62791  5.661191e+00
                                  2.62923  5.669978e+00
                                  2.63054  5.678697e+00
                                  2.63186  5.689098e+00
                                  2.63317  5.699398e+00
                                  2.63449  5.708936e+00
                                  2.63580  5.718446e+00
                                  2.63711  5.727185e+00
                                  2.63843  5.735926e+00
                                  2.63974  5.744319e+00
                                  2.64106  5.752720e+00
                                  2.64237  5.761434e+00
                                  2.64369  5.770168e+00
                                  2.64500  5.777653e+00
                                  2.64631  5.785111e+00
                                  2.64763  5.792157e+00
                                  2.64894  5.799191e+00
                                  2.65026  5.807015e+00
                                  2.65157  5.814910e+00
                                  2.65289  5.823773e+00
                                  2.65420  5.832749e+00
                                  2.65551  5.841792e+00
                                  2.65683  5.850867e+00
                                  2.65814  5.859539e+00
                                  2.65946  5.868170e+00
                                  2.66077  5.877357e+00
                                  2.66209  5.886682e+00
                                  2.66340  5.896053e+00
                                  2.66471  5.905473e+00
                                  2.66603  5.914598e+00
                                  2.66734  5.923682e+00
                                  2.66866  5.932938e+00
                                  2.66997  5.942324e+00
                                  2.67129  5.951409e+00
                                  2.67260  5.960443e+00
                                  2.67391  5.969211e+00
                                  2.67523  5.977858e+00
                                  2.67654  5.986693e+00
                                  2.67786  5.995578e+00
                                  2.67917  6.005037e+00
                                  2.68049  6.014846e+00
                                  2.68180  6.025044e+00
                                  2.68311  6.035570e+00
                                  2.68443  6.045746e+00
                                  2.68574  6.055610e+00
                                  2.68706  6.065054e+00
                                  2.68837  6.074016e+00
                                  2.68969  6.083250e+00
                                  2.69100  6.092871e+00
                                  2.69231  6.102538e+00
                                  2.69363  6.112277e+00
                                  2.69494  6.121975e+00
                                  2.69626  6.131551e+00
                                  2.69757  6.141312e+00
                                  2.69889  6.151579e+00
                                  2.70020  6.162011e+00
                                  2.70151  6.173033e+00
                                  2.70283  6.184052e+00
                                  2.70414  6.194849e+00
                                  2.70546  6.205559e+00
                                  2.70677  6.214768e+00
                                  2.70809  6.224005e+00
                                  2.70940  6.233575e+00
                                  2.71071  6.243169e+00
                                  2.71203  6.253459e+00
                                  2.71334  6.263820e+00
                                  2.71466  6.274084e+00
                                  2.71597  6.284361e+00
                                  2.71729  6.294703e+00
                                  2.71860  6.305086e+00
                                  2.71991  6.316301e+00
                                  2.72123  6.327843e+00
                                  2.72254  6.339612e+00
                                  2.72386  6.351520e+00
                                  2.72517  6.362767e+00
                                  2.72649  6.373551e+00
                                  2.72780  6.384111e+00
                                  2.72911  6.394450e+00
                                  2.73043  6.405417e+00
                                  2.73174  6.417225e+00
                                  2.73306  6.429009e+00
                                  2.73437  6.440706e+00
                                  2.73569  6.452025e+00
                                  2.73700  6.462173e+00
                                  2.73831  6.472435e+00
                                  2.73963  6.483114e+00
                                  2.74094  6.493927e+00
                                  2.74226  6.505779e+00
                                  2.74357  6.517689e+00
                                  2.74489  6.530201e+00
                                  2.74620  6.542796e+00
                                  2.74751  6.555130e+00
                                  2.74883  6.567526e+00
                                  2.75014  6.578899e+00
                                  2.75146  6.590118e+00
                                  2.75277  6.600996e+00
                                  2.75409  6.611837e+00
                                  2.75540  6.623473e+00
                                  2.75671  6.635706e+00
                                  2.75803  6.648411e+00
                                  2.75934  6.661422e+00
                                  2.76066  6.674231e+00
                                  2.76197  6.686641e+00
                                  2.76329  6.698765e+00
                                  2.76460  6.710438e+00
                                  2.76591  6.721779e+00
                                  2.76723  6.732036e+00
                                  2.76854  6.742375e+00
                                  2.76986  6.753825e+00
                                  2.77117  6.765278e+00
                                  2.77249  6.778117e+00
                                  2.77380  6.791018e+00
                                  2.77511  6.804097e+00
                                  2.77643  6.817239e+00
                                  2.77774  6.830398e+00
                                  2.77906  6.843595e+00
                                  2.78037  6.856163e+00
                                  2.78169  6.868366e+00
                                  2.78300  6.880506e+00
                                  2.78431  6.892588e+00
                                  2.78563  6.904782e+00
                                  2.78694  6.917132e+00
                                  2.78826  6.929276e+00
                                  2.78957  6.940751e+00
                                  2.79089  6.952108e+00
                                  2.79220  6.962495e+00
                                  2.79351  6.972914e+00
                                  2.79483  6.984019e+00
                                  2.79614  6.995156e+00
                                  2.79746  7.007523e+00
                                  2.79877  7.020108e+00
                                  2.80009  7.032686e+00
                                  2.80140  7.045293e+00
                                  2.80271  7.057966e+00
                                  2.80403  7.070696e+00
                                  2.80534  7.083669e+00
                                  2.80666  7.096917e+00
                                  2.80797  7.109828e+00
                                  2.80929  7.121994e+00
                                  2.81060  7.133873e+00
                                  2.81191  7.144349e+00
                                  2.81323  7.154873e+00
                                  2.81454  7.165875e+00
                                  2.81586  7.176910e+00
                                  2.81717  7.189318e+00
                                  2.81849  7.201923e+00
                                  2.81980  7.214733e+00
                                  2.82111  7.227646e+00
                                  2.82243  7.240320e+00
                                  2.82374  7.252846e+00
                                  2.82506  7.264616e+00
                                  2.82637  7.275430e+00
                                  2.82769  8.422384e+00
                                  2.82900  1.815344e+01
